Time,Phi (degrees),Theta (degrees),Yaw (degrees)
0.01200,-0.42252,-0.47659,-13.64858
0.03400,-1.16220,-1.07637,-38.22609
0.04600,-1.44282,-1.33519,-51.70483
0.06800,-1.90179,-1.79990,-63.79756
0.09000,-2.21280,-2.21587,-75.02252
0.10200,-2.31909,-2.39742,-80.51272
0.12400,-2.55479,-2.69413,-89.78882
0.13600,-2.60112,-2.78878,-93.95882
0.15800,-2.72662,-2.99515,-100.73624
0.17000,-2.77033,-3.06313,-103.53601
0.19200,-2.85015,-3.23628,-108.46764
0.20400,-2.88452,-3.29301,-110.89880
0.22600,-2.95681,-3.36759,-114.33641
0.24800,-2.95542,-3.37760,-117.14424
0.26000,-2.98347,-3.40132,-118.33978
0.28200,-3.03472,-3.42195,-120.70926
0.29400,-3.06736,-3.45419,-121.44562
0.31600,-3.08275,-3.51136,-122.79798
0.32800,-3.11235,-3.54559,-123.31750
0.35000,-3.20141,-3.52856,-124.63455
0.37200,-3.20469,-3.57228,-124.86985
0.38400,-3.22983,-3.58426,-125.23219
0.40600,-3.27311,-3.59225,-125.77936
0.41800,-3.25109,-3.61124,-125.87560
0.44000,-3.21142,-3.62067,-126.26116
0.45200,-3.22045,-3.63135,-126.38270
0.47400,-3.17861,-3.69293,-126.57001
0.48628,-3.16802,-3.70333,-126.67067
0.50800,-3.14697,-3.76985,-126.73429
0.53000,-3.20545,-3.77073,-127.01048
0.54200,-3.22481,-3.76384,-127.02751
0.56400,-3.19557,-3.75375,-127.22479
0.57600,-3.17005,-3.73672,-127.36485
0.59800,-3.11931,-3.71906,-127.63889
0.61000,-3.13626,-3.72185,-127.59909
0.63200,-3.14359,-3.72452,-127.43826
0.65400,-3.15142,-3.66837,-127.43095
0.66600,-3.15700,-3.66734,-127.74306
0.68300,-3.18654,-3.67195,-127.64526
0.70500,-3.17141,-3.68378,-127.73494
0.71700,-3.18099,-3.69143,-127.62559
0.73900,-3.21393,-3.65740,-127.40698
0.75100,-3.18479,-3.65705,-127.60679
0.77300,-3.21710,-3.65584,-127.84654
0.79500,-3.15867,-3.72164,-127.77076
0.80700,-3.14468,-3.72570,-127.67935
0.82900,-3.10879,-3.73473,-127.41350
0.84100,-3.09860,-3.73175,-127.36055
0.86300,-3.14494,-3.78098,-127.28240
0.87500,-3.13520,-3.78693,-127.47469
0.89700,-3.14949,-3.79449,-127.30900
0.91900,-3.13794,-3.78824,-127.58973
0.93100,-3.17018,-3.76099,-127.49783
0.95300,-3.14728,-3.73401,-127.67394
0.96500,-3.15773,-3.74942,-127.61698
0.98700,-3.15022,-3.73330,-127.87327
0.99900,-3.16583,-3.73467,-127.83904
1.02100,-3.17958,-3.74575,-127.55292
1.03328,-3.19248,-3.76511,-127.39235
1.05500,-3.22359,-3.72199,-127.40250
1.07700,-3.21116,-3.74976,-127.21961
1.08900,-3.23717,-3.75746,-127.30012
1.11100,-3.24378,-3.75068,-127.50703
1.12300,-3.24510,-3.75303,-127.48636
1.14500,-3.22962,-3.78612,-127.48629
1.15700,-3.22237,-3.79999,-127.39829
1.17900,-3.19043,-3.79118,-127.23067
1.20100,-3.18165,-3.80371,-127.50326
1.21300,-3.19521,-3.79932,-127.58641
1.23500,-3.16408,-3.82600,-127.65889
1.24700,-3.19218,-3.84688,-127.55401
1.26900,-3.18547,-3.82037,-127.58866
1.28100,-3.19978,-3.81539,-127.54551
1.30300,-3.20241,-3.79566,-127.52833
1.32500,-3.22397,-3.77667,-127.19970
1.33700,-3.23095,-3.79257,-127.21152
1.35900,-3.24880,-3.81426,-126.85944
1.37100,-3.24763,-3.81782,-126.96027
1.39300,-3.22957,-3.81835,-127.33413
1.40500,-3.22895,-3.82192,-127.42670
1.42700,-3.25278,-3.79871,-127.45545
1.43900,-3.25119,-3.78273,-127.50241
1.46100,-3.27491,-3.77923,-127.67420
1.48300,-3.24364,-3.77387,-127.66006
1.49500,-3.24115,-3.75522,-127.66217
1.51700,-3.28943,-3.75736,-127.86320
1.52900,-3.29769,-3.75746,-127.91904
1.55100,-3.30441,-3.75574,-128.00830
1.56300,-3.29949,-3.76657,-127.92002
1.58500,-3.28296,-3.81426,-127.88454
1.60700,-3.27830,-3.82477,-127.91425
1.61900,-3.27844,-3.83724,-127.89803
1.64100,-3.32879,-3.80647,-127.93318
1.65300,-3.32594,-3.81673,-127.90620
1.67500,-3.33299,-3.80641,-127.91513
1.68700,-3.31752,-3.80873,-127.91863
1.70900,-3.32111,-3.80540,-127.81037
1.73100,-3.31753,-3.79660,-127.74670
1.74300,-3.32506,-3.79390,-127.69968
1.76500,-3.33183,-3.79807,-127.73933
1.77700,-3.32592,-3.79641,-127.70264
1.79900,-3.32462,-3.81724,-127.80301
1.81100,-3.33199,-3.80301,-127.78229
1.83300,-3.32903,-3.81524,-127.85761
1.84500,-3.33957,-3.81393,-127.87392
1.86700,-3.34308,-3.81125,-127.79977
1.88900,-3.33053,-3.79675,-127.63694
1.90100,-3.33152,-3.79949,-127.69096
1.92300,-3.33000,-3.81573,-127.55371
1.93500,-3.32360,-3.81661,-127.61086
1.95700,-3.30696,-3.82852,-127.66936
1.96900,-3.30863,-3.81536,-127.62776
1.99100,-3.26551,-3.81623,-127.56498
2.01300,-3.28334,-3.80270,-127.48222
2.02500,-3.28950,-3.79962,-127.47559
2.04700,-3.28634,-3.78562,-127.41727
2.05900,-3.28991,-3.79632,-127.52294
2.08100,-3.28317,-3.79376,-127.53845
2.09300,-3.28080,-3.79439,-127.51478
2.11500,-3.29854,-3.77976,-127.57758
2.13700,-3.31457,-3.78660,-127.52394
2.14900,-3.31867,-3.78085,-127.43237
2.17100,-3.32946,-3.78782,-127.47105
2.18300,-3.33208,-3.79255,-127.41982
2.20500,-3.32671,-3.78754,-127.22737
2.21700,-3.32272,-3.78800,-127.19288
2.23900,-3.31997,-3.80980,-127.23074
2.25100,-3.32931,-3.80919,-127.16204
2.27300,-3.33084,-3.80133,-127.22433
2.29500,-3.33541,-3.81009,-127.29748
2.30700,-3.34047,-3.80222,-127.34401
2.32900,-3.32640,-3.80084,-127.56596
2.34100,-3.32949,-3.79754,-127.49457
2.36300,-3.34602,-3.79568,-127.38880
2.37500,-3.35371,-3.78997,-127.32177
2.39700,-3.34315,-3.78214,-127.28094
2.41900,-3.36096,-3.78616,-127.12047
2.43100,-3.36815,-3.78479,-127.21410
2.45300,-3.36591,-3.79089,-127.23131
2.46500,-3.36976,-3.79089,-127.25080
2.48700,-3.37003,-3.78779,-127.29763
2.49900,-3.37870,-3.78889,-127.30311
2.52100,-3.37916,-3.78832,-127.27784
2.53300,-3.37530,-3.78970,-127.23333
2.55500,-3.38745,-3.79421,-127.30316
2.57700,-3.38163,-3.78297,-127.31371
2.58900,-3.38189,-3.78642,-127.26703
2.61100,-3.38889,-3.79187,-127.32484
2.62300,-3.39613,-3.79365,-127.31099
2.64500,-3.40879,-3.79595,-127.36105
2.65700,-3.41348,-3.79719,-127.34652
2.68400,-3.42600,-3.79418,-127.31059
2.69600,-3.42578,-3.80111,-127.30756
2.71800,-3.41934,-3.80035,-127.28616
2.73000,-3.42360,-3.79981,-127.25336
2.75200,-3.43768,-3.79769,-127.27531
2.76400,-3.43863,-3.79566,-127.28266
2.78600,-3.44239,-3.79286,-127.26875
2.79800,-3.44530,-3.79398,-127.27273
2.82000,-3.45829,-3.79051,-127.28170
2.84200,-3.45892,-3.78675,-127.23091
2.85400,-3.46320,-3.79393,-127.22958
2.87600,-3.47434,-3.78245,-127.25612
2.88800,-3.47528,-3.78088,-127.25486
2.91000,-3.46911,-3.78327,-127.25631
2.92200,-3.47489,-3.78386,-127.23415
2.94400,-3.48522,-3.78250,-127.23225
2.96600,-3.49285,-3.78949,-127.20260
2.97800,-3.49713,-3.78880,-127.20052
3.00000,-3.50629,-3.78587,-127.18008
3.01200,-3.51450,-3.79122,-127.16830
3.03400,-3.52971,-3.79412,-127.18553
3.04600,-3.53605,-3.79597,-127.18342
3.06800,-3.54454,-3.80195,-127.16245
3.08000,-3.54905,-3.80287,-127.15308
3.10200,-3.55334,-3.80154,-127.14088
3.12400,-3.56760,-3.80231,-127.12820
3.13600,-3.57248,-3.80035,-127.12107
3.15800,-3.57857,-3.80789,-127.12738
3.17000,-3.58110,-3.80384,-127.12373
3.19200,-3.58583,-3.81333,-127.11290
3.20400,-3.59046,-3.81553,-127.10704
3.22600,-3.59922,-3.81835,-127.10387
3.24800,-3.61122,-3.82331,-127.09997
3.26000,-3.61607,-3.82182,-127.09909
3.28200,-3.62604,-3.82584,-127.10487
3.29400,-3.63384,-3.82105,-127.09615
3.31600,-3.64422,-3.81878,-127.09104
3.32800,-3.65043,-3.81649,-127.09226
3.35000,-3.66627,-3.81040,-127.08178
3.37200,-3.67770,-3.81302,-127.07172
3.38400,-3.68196,-3.81294,-127.07495
3.40600,-3.69756,-3.80948,-127.05321
3.41800,-3.70010,-3.81505,-127.04162
3.44000,-3.70825,-3.80912,-127.04314
3.45200,-3.71393,-3.81137,-127.04559
3.47400,-3.72445,-3.81871,-127.04016
3.48600,-3.73028,-3.81679,-127.03068
3.50800,-3.74046,-3.81737,-127.02437
3.53000,-3.75009,-3.82084,-127.01993
3.54200,-3.75226,-3.81864,-127.02292
3.56400,-3.75555,-3.82501,-127.00069
3.57600,-3.76275,-3.83230,-127.00156
3.59800,-3.77257,-3.82505,-126.99796
3.61000,-3.77453,-3.82598,-127.00230
3.63200,-3.77944,-3.83080,-127.01305
3.65400,-3.78817,-3.83464,-127.01859
3.66600,-3.79061,-3.83187,-127.01340
3.68800,-3.80171,-3.83444,-126.98975
3.70000,-3.80387,-3.83515,-126.97959
3.72200,-3.81414,-3.83954,-126.96206
3.73400,-3.81858,-3.83784,-126.95810
3.75600,-3.82860,-3.84259,-126.93448
3.77800,-3.83871,-3.83994,-126.93867
3.79000,-3.84707,-3.84115,-126.92284
3.81200,-3.84941,-3.83766,-126.93024
3.82400,-3.85115,-3.83334,-126.91949
3.84600,-3.85432,-3.83837,-126.91364
3.85800,-3.85919,-3.83335,-126.91212
3.88000,-3.86419,-3.83786,-126.92632
3.89200,-3.86677,-3.83999,-126.92387
3.91400,-3.87249,-3.84612,-126.92017
3.93600,-3.87827,-3.84871,-126.91061
3.94800,-3.88096,-3.85020,-126.90608
3.97000,-3.88268,-3.84677,-126.89079
3.98200,-3.88849,-3.85030,-126.89062
4.00400,-3.89305,-3.85924,-126.86820
4.01600,-3.89887,-3.85416,-126.86178
4.03800,-3.89319,-3.86634,-126.85356
4.06000,-3.89735,-3.86027,-126.84774
4.07200,-3.90013,-3.85759,-126.84705
4.09400,-3.89640,-3.86084,-126.85621
4.10600,-3.90084,-3.85778,-126.83917
4.12800,-3.90255,-3.85931,-126.83616
4.14000,-3.90398,-3.85756,-126.83207
4.16200,-3.90910,-3.85924,-126.83472
4.17400,-3.91299,-3.86157,-126.82912
4.19600,-3.92045,-3.85754,-126.78642
4.21800,-3.92428,-3.86388,-126.77487
4.23000,-3.92655,-3.86721,-126.76847
4.25200,-3.93156,-3.86841,-126.76135
4.26400,-3.93405,-3.86836,-126.75015
4.28600,-3.93540,-3.86248,-126.73615
4.29800,-3.93857,-3.86561,-126.73007
4.32000,-3.94027,-3.86885,-126.73289
4.34200,-3.94707,-3.86599,-126.70732
4.35400,-3.94912,-3.86830,-126.69861
4.37600,-3.95452,-3.87093,-126.69463
4.38800,-3.95657,-3.86759,-126.68376
4.41000,-3.96596,-3.86537,-126.68704
4.42200,-3.97219,-3.86708,-126.66547
4.44400,-3.97934,-3.85922,-126.65983
4.46600,-3.98022,-3.85804,-126.66891
4.47800,-3.98192,-3.86089,-126.66824
4.50000,-3.98526,-3.84988,-126.68594
4.51200,-3.98957,-3.85240,-126.68150
4.53400,-3.98945,-3.85958,-126.66878
4.54600,-3.98974,-3.85895,-126.66753
4.56800,-3.99950,-3.85823,-126.65533
4.58000,-4.00508,-3.85508,-126.65919
4.60200,-4.00582,-3.85863,-126.64925
4.62400,-4.00954,-3.86965,-126.64890
4.63600,-4.01479,-3.86657,-126.63306
4.65800,-4.01778,-3.87063,-126.61562
4.67000,-4.02048,-3.87347,-126.62408
4.68700,-4.02120,-3.86616,-126.62098
4.70900,-4.02810,-3.86730,-126.60818
4.72100,-4.02886,-3.87058,-126.61652
4.74300,-4.03754,-3.85825,-126.61642
4.76500,-4.04278,-3.86201,-126.62066
4.77700,-4.03978,-3.86145,-126.61205
4.79900,-4.04868,-3.86340,-126.60793
4.81100,-4.05239,-3.86744,-126.60873
4.83300,-4.05254,-3.86178,-126.59328
4.84500,-4.05415,-3.85968,-126.58811
4.86700,-4.05529,-3.86397,-126.58398
4.88900,-4.06378,-3.86527,-126.58461
4.90100,-4.06508,-3.86337,-126.57717
4.92300,-4.06961,-3.87038,-126.59140
4.93500,-4.07039,-3.86819,-126.58636
4.95700,-4.07266,-3.86538,-126.57254
4.96900,-4.07100,-3.86585,-126.56285
4.99100,-4.06991,-3.86989,-126.55877
5.01300,-4.07590,-3.87222,-126.57410
5.02500,-4.07914,-3.86968,-126.57429
5.04700,-4.07823,-3.87004,-126.57228
5.05900,-4.07882,-3.86853,-126.56975
5.08100,-4.08553,-3.86756,-126.58874
5.09300,-4.08627,-3.86474,-126.58625
5.11500,-4.08605,-3.87136,-126.58364
5.12700,-4.08859,-3.86972,-126.57527
5.14900,-4.09582,-3.87121,-126.57442
5.17100,-4.10631,-3.87683,-126.56572
5.18300,-4.10789,-3.87834,-126.56349
5.20500,-4.11141,-3.87785,-126.57564
5.21700,-4.11594,-3.87743,-126.56271
5.23900,-4.11214,-3.87653,-126.55945
5.25100,-4.11389,-3.87807,-126.55285
5.27300,-4.11623,-3.88177,-126.53757
5.29500,-4.11514,-3.88122,-126.53090
5.30700,-4.11517,-3.88155,-126.54243
5.32900,-4.11628,-3.87974,-126.54170
5.34100,-4.11941,-3.88523,-126.53664
5.36300,-4.12055,-3.88711,-126.53646
5.37500,-4.12167,-3.88670,-126.53406
5.39700,-4.12353,-3.88963,-126.53698
5.41900,-4.12356,-3.88374,-126.51289
5.43100,-4.12133,-3.88785,-126.51112
5.45300,-4.13328,-3.88387,-126.52676
5.46500,-4.13492,-3.87925,-126.52589
5.48700,-4.14127,-3.88586,-126.52449
5.49900,-4.14278,-3.88631,-126.51403
5.52100,-4.15068,-3.88641,-126.50485
5.53300,-4.15326,-3.88750,-126.49548
5.55500,-4.15862,-3.88481,-126.49100
5.57700,-4.16162,-3.88293,-126.48419
5.58900,-4.16323,-3.88177,-126.46939
5.61100,-4.16368,-3.87894,-126.48042
5.62300,-4.16491,-3.87692,-126.47201
5.64500,-4.17089,-3.87817,-126.47115
5.65700,-4.17188,-3.87879,-126.46615
5.67900,-4.17693,-3.89372,-126.46238
5.70100,-4.18082,-3.89289,-126.45039
5.71300,-4.18048,-3.89474,-126.44466
5.73500,-4.18258,-3.89391,-126.43941
5.74700,-4.18346,-3.89301,-126.44204
5.76900,-4.18192,-3.89510,-126.41846
5.78100,-4.18307,-3.89866,-126.41316
5.80300,-4.18670,-3.90363,-126.42286
5.81528,-4.18757,-3.90513,-126.40572
5.83700,-4.19611,-3.90425,-126.41439
5.85900,-4.19252,-3.90510,-126.42238
5.87100,-4.19168,-3.90339,-126.40993
5.89300,-4.19180,-3.90832,-126.39626
5.90500,-4.19340,-3.90841,-126.38062
5.92700,-4.19510,-3.90750,-126.39471
5.93900,-4.19579,-3.90928,-126.39483
5.96100,-4.19454,-3.91061,-126.39448
5.98300,-4.19395,-3.90998,-126.40096
5.99500,-4.19738,-3.90969,-126.39629
6.01700,-4.19435,-3.91055,-126.40307
6.02900,-4.19424,-3.91348,-126.40282
6.05100,-4.19988,-3.91251,-126.39989
6.06300,-4.20360,-3.90865,-126.39192
6.08500,-4.20583,-3.90957,-126.39623
6.10700,-4.21159,-3.91105,-126.38964
6.11900,-4.20903,-3.90880,-126.39871
6.14100,-4.21422,-3.90368,-126.42225
6.15300,-4.21632,-3.90639,-126.41807
6.17500,-4.21945,-3.90085,-126.41570
6.18700,-4.22001,-3.90805,-126.44144
6.20900,-4.22585,-3.90264,-126.43860
6.22100,-4.22540,-3.90393,-126.43532
6.24300,-4.22859,-3.91053,-126.42046
6.26500,-4.23781,-3.90934,-126.43055
6.27700,-4.23859,-3.91260,-126.42844
6.29900,-4.24213,-3.90956,-126.41553
6.31100,-4.24031,-3.91327,-126.41014
6.33300,-4.24405,-3.92268,-126.42521
6.34500,-4.24436,-3.91569,-126.42391
6.36700,-4.24768,-3.93125,-126.41446
6.38900,-4.25290,-3.93047,-126.41116
6.40100,-4.25587,-3.92934,-126.40167
6.42300,-4.25793,-3.93289,-126.42271
6.43500,-4.25953,-3.92888,-126.42136
6.45700,-4.25769,-3.92636,-126.40368
6.46900,-4.25710,-3.92796,-126.40295
6.49100,-4.26159,-3.92774,-126.39330
6.51300,-4.25852,-3.92611,-126.40167
6.52500,-4.25803,-3.92677,-126.39249
6.54700,-4.26380,-3.92116,-126.39118
6.55900,-4.26407,-3.92392,-126.38538
6.58100,-4.27145,-3.91708,-126.34292
6.59300,-4.27452,-3.91912,-126.34190
6.61500,-4.26975,-3.92596,-126.34255
6.62700,-4.27099,-3.92547,-126.32930
6.64900,-4.27733,-3.92422,-126.35821
6.67100,-4.28071,-3.92921,-126.34826
6.68800,-4.28212,-3.93069,-126.33512
6.70000,-4.28312,-3.93373,-126.33183
6.72200,-4.28512,-3.94151,-126.34715
6.73400,-4.28654,-3.94058,-126.34587
6.75600,-4.28346,-3.94326,-126.35612
6.76800,-4.28424,-3.94595,-126.35296
6.79000,-4.28191,-3.94245,-126.34309
6.81200,-4.27798,-3.94542,-126.33514
6.82400,-4.27654,-3.94189,-126.33897
6.84600,-4.27589,-3.94092,-126.33488
6.85800,-4.27427,-3.94297,-126.34173
6.88000,-4.27715,-3.93513,-126.33353
6.89200,-4.27383,-3.93899,-126.32391
6.91400,-4.26378,-3.93245,-126.31923
6.93600,-4.25797,-3.93422,-126.31404
6.94800,-4.25890,-3.93350,-126.32378
6.97000,-4.25904,-3.93205,-126.34653
6.98200,-4.26026,-3.93141,-126.33173
7.00400,-4.26260,-3.92565,-126.33645
7.01600,-4.26227,-3.92379,-126.32762
7.03800,-4.25870,-3.92083,-126.31168
7.06000,-4.26695,-3.92502,-126.32432
7.07200,-4.26757,-3.92025,-126.32755
7.09400,-4.26060,-3.91648,-126.35432
7.10600,-4.25931,-3.91813,-126.34625
7.12800,-4.26053,-3.91017,-126.35477
7.14000,-4.26194,-3.91011,-126.34586
7.16200,-4.25736,-3.92401,-126.33680
7.17400,-4.25656,-3.92332,-126.33202
7.19600,-4.26129,-3.91662,-126.31687
7.21800,-4.25687,-3.92079,-126.33527
7.23000,-4.25404,-3.91725,-126.33497
7.25200,-4.25331,-3.91800,-126.35625
7.26400,-4.25554,-3.91853,-126.33882
7.28600,-4.25444,-3.90805,-126.34117
7.29800,-4.25276,-3.90856,-126.34511
7.32000,-4.25268,-3.90606,-126.34262
7.34200,-4.25529,-3.90128,-126.33901
7.35400,-4.25893,-3.90229,-126.33681
7.37600,-4.25116,-3.89855,-126.33022
7.38800,-4.24707,-3.90013,-126.33482
7.41000,-4.24691,-3.90191,-126.34036
7.42200,-4.24673,-3.89912,-126.34701
7.44400,-4.25015,-3.90210,-126.34112
7.46600,-4.25295,-3.89857,-126.35004
7.47800,-4.25418,-3.89858,-126.35978
7.50000,-4.25487,-3.90184,-126.34008
7.51200,-4.25560,-3.90166,-126.33547
7.53400,-4.25523,-3.89899,-126.32595
7.54600,-4.24929,-3.89938,-126.32164
7.56800,-4.24737,-3.89628,-126.31038
7.58000,-4.24636,-3.89841,-126.30471
7.60200,-4.25197,-3.89621,-126.29598
7.62400,-4.24920,-3.89661,-126.31403
7.63600,-4.24806,-3.89466,-126.30307
7.65800,-4.24794,-3.89623,-126.31100
7.67000,-4.24855,-3.89145,-126.31487
7.69200,-4.24830,-3.89943,-126.31593
7.70400,-4.24996,-3.89623,-126.30131
7.72600,-4.25640,-3.89575,-126.30606
7.74800,-4.25986,-3.89274,-126.29443
7.76000,-4.26253,-3.89197,-126.29230
7.78200,-4.25835,-3.89646,-126.30309
7.79400,-4.25750,-3.89433,-126.30314
7.81600,-4.25488,-3.88914,-126.30132
7.82800,-4.25431,-3.89308,-126.28891
7.85000,-4.25937,-3.88252,-126.28764
7.86200,-4.25569,-3.88360,-126.28363
7.88400,-4.25750,-3.88970,-126.27979
7.90600,-4.26004,-3.88716,-126.26543
7.91800,-4.26429,-3.88577,-126.27322
7.94000,-4.26403,-3.88985,-126.26335
7.95200,-4.26637,-3.88568,-126.26381
7.97400,-4.26471,-3.88175,-126.25660
7.98600,-4.26505,-3.88127,-126.25051
8.00800,-4.26423,-3.87236,-126.23302
8.03000,-4.26661,-3.87838,-126.22421
8.04200,-4.26227,-3.87694,-126.22345
8.06400,-4.25014,-3.88457,-126.19798
8.07600,-4.24931,-3.88366,-126.19569
8.09800,-4.25075,-3.88330,-126.19456
8.11000,-4.25032,-3.87911,-126.19779
8.13200,-4.24973,-3.88047,-126.20156
8.15400,-4.25101,-3.88749,-126.20745
8.16600,-4.25262,-3.88733,-126.22234
8.18800,-4.25494,-3.88738,-126.22708
8.20000,-4.25540,-3.88772,-126.24111
8.22200,-4.25346,-3.89085,-126.24105
8.23400,-4.25281,-3.88993,-126.24145
8.25600,-4.25071,-3.88675,-126.21664
8.26800,-4.24903,-3.88578,-126.21051
8.29000,-4.24223,-3.89212,-126.21455
8.31200,-4.24316,-3.89309,-126.20061
8.32400,-4.24134,-3.89073,-126.20084
8.34600,-4.24122,-3.89064,-126.19111
8.35800,-4.24015,-3.88980,-126.19547
8.38000,-4.23787,-3.89857,-126.18851
8.39200,-4.23352,-3.90300,-126.18140
8.41400,-4.23320,-3.90707,-126.19323
8.43600,-4.23159,-3.91251,-126.21333
8.44800,-4.22884,-3.90985,-126.21001
8.47000,-4.22421,-3.91224,-126.19655
8.48200,-4.22292,-3.91373,-126.19031
8.50400,-4.22325,-3.90980,-126.16131
8.51600,-4.21928,-3.91066,-126.15670
8.53800,-4.21742,-3.89994,-126.17334
8.56000,-4.21218,-3.89760,-126.15531
8.57200,-4.20645,-3.90166,-126.15166
8.59400,-4.20888,-3.89218,-126.16653
8.60600,-4.20840,-3.89191,-126.16789
8.62800,-4.21410,-3.89721,-126.15929
8.64000,-4.21562,-3.89606,-126.14946
8.66200,-4.20919,-3.89730,-126.16233
8.67400,-4.20607,-3.89730,-126.16040
8.70100,-4.19724,-3.89899,-126.14230
8.71300,-4.19470,-3.89951,-126.15777
8.73500,-4.19397,-3.89693,-126.16738
8.74700,-4.19331,-3.89593,-126.16449
8.76900,-4.19547,-3.90543,-126.17863
8.78100,-4.19391,-3.90579,-126.18376
8.80300,-4.19311,-3.90217,-126.18341
8.81500,-4.19174,-3.90431,-126.18356
8.83700,-4.19269,-3.89922,-126.19868
8.85900,-4.19347,-3.89122,-126.19850
8.87100,-4.19363,-3.89286,-126.20204
8.89300,-4.19493,-3.88204,-126.18943
8.90500,-4.19296,-3.88376,-126.19431
8.92700,-4.20091,-3.88259,-126.19047
8.93900,-4.20069,-3.88142,-126.20248
8.96100,-4.20615,-3.87775,-126.18367
8.98300,-4.20444,-3.87619,-126.17007
8.99500,-4.20428,-3.88127,-126.16826
9.01700,-4.20300,-3.87300,-126.17113
9.02900,-4.20236,-3.87759,-126.18010
9.05100,-4.20118,-3.88105,-126.16416
9.06300,-4.19974,-3.88112,-126.15901
9.08500,-4.19367,-3.88983,-126.13822
9.10700,-4.19137,-3.88727,-126.14565
9.11900,-4.19503,-3.88510,-126.14018
9.14100,-4.19294,-3.88312,-126.16035
9.15300,-4.19548,-3.88327,-126.16927
9.17500,-4.18307,-3.87437,-126.16035
9.18700,-4.17832,-3.87598,-126.17028
9.20900,-4.17373,-3.87585,-126.13871
9.22100,-4.17113,-3.87477,-126.14436
9.24300,-4.17085,-3.87485,-126.14162
9.26500,-4.16820,-3.87363,-126.16945
9.27700,-4.16530,-3.87462,-126.17272
9.29900,-4.16126,-3.87071,-126.18472
9.31100,-4.16219,-3.87020,-126.18661
9.33300,-4.16343,-3.87417,-126.20113
9.34500,-4.15977,-3.87256,-126.20379
9.36700,-4.16384,-3.87027,-126.21587
9.38900,-4.16398,-3.87331,-126.20305
9.40100,-4.16383,-3.87633,-126.20399
9.42300,-4.16270,-3.87189,-126.21816
9.43500,-4.15937,-3.87179,-126.20934
9.45700,-4.15837,-3.87613,-126.20503
9.46900,-4.16111,-3.87683,-126.20223
9.49100,-4.15713,-3.87740,-126.18179
9.50300,-4.15690,-3.87796,-126.18341
