Time,Phi (degrees),Theta (degrees)
0.00000,0.00000,0.00000
0.01200,-0.36558,-0.52722
0.03400,-0.98594,-1.27568
0.04600,-1.25646,-1.54439
0.06800,-1.70579,-2.01246
0.09000,-2.01742,-2.41350
0.10200,-2.13785,-2.57759
0.12400,-2.38750,-2.85523
0.13600,-2.44983,-2.93351
0.15800,-2.59462,-3.11714
0.17000,-2.65184,-3.17268
0.19200,-2.74873,-3.32682
0.20400,-2.79342,-3.37437
0.22600,-2.88219,-3.43476
0.24800,-2.89587,-3.43142
0.26000,-2.93037,-3.44971
0.28200,-2.99200,-3.46197
0.29400,-3.02922,-3.49025
0.31600,-3.05168,-3.54075
0.32800,-3.08458,-3.57213
0.35000,-3.17948,-3.55121
0.37200,-3.18715,-3.59085
0.38400,-3.21422,-3.60112
0.40600,-3.26067,-3.60638
0.41800,-3.24006,-3.62404
0.44000,-3.20266,-3.63121
0.45200,-3.21270,-3.64097
0.47400,-3.17242,-3.70097
0.48628,-3.16259,-3.71068
0.50800,-3.14270,-3.77613
0.53000,-3.20218,-3.77629
0.54200,-3.22198,-3.76901
0.56400,-3.19348,-3.75821
0.57600,-3.16831,-3.74086
0.59800,-3.11814,-3.72261
0.61000,-3.13532,-3.72520
0.63200,-3.14303,-3.72755
0.65400,-3.15116,-3.67113
0.66600,-3.15688,-3.67000
0.68300,-3.18660,-3.67443
0.70500,-3.17165,-3.68609
0.71700,-3.18132,-3.69366
0.73900,-3.21434,-3.65945
0.75100,-3.18528,-3.65900
0.77300,-3.21771,-3.65780
0.79500,-3.15941,-3.72356
0.80700,-3.14547,-3.72760
0.82900,-3.10966,-3.73664
0.84100,-3.09949,-3.73364
0.86300,-3.14590,-3.78279
0.87500,-3.13617,-3.78869
0.89700,-3.15050,-3.79621
0.91900,-3.13900,-3.78989
0.93100,-3.17123,-3.76262
0.95300,-3.14840,-3.73558
0.96500,-3.15886,-3.75099
0.98700,-3.15140,-3.73484
0.99900,-3.16702,-3.73621
1.02100,-3.18078,-3.74726
1.03328,-3.19371,-3.76661
1.05500,-3.22482,-3.72351
1.07700,-3.21242,-3.75130
1.08900,-3.23843,-3.75903
1.11100,-3.24504,-3.75225
1.12300,-3.24636,-3.75461
1.14500,-3.23087,-3.78770
1.15700,-3.22362,-3.80157
1.17900,-3.19167,-3.79281
1.20100,-3.18285,-3.80531
1.21300,-3.19641,-3.80092
1.23500,-3.16526,-3.82757
1.24700,-3.19339,-3.84843
1.26900,-3.18668,-3.82192
1.28100,-3.20100,-3.81694
1.30300,-3.20362,-3.79721
1.32500,-3.22512,-3.77816
1.33700,-3.23211,-3.79407
1.35900,-3.25002,-3.81572
1.37100,-3.24884,-3.81929
1.39300,-3.23079,-3.81977
1.40500,-3.23017,-3.82335
1.42700,-3.25400,-3.80017
1.43900,-3.25242,-3.78420
1.46100,-3.27614,-3.78075
1.48300,-3.24487,-3.77539
1.49500,-3.24239,-3.75674
1.51700,-3.29066,-3.75898
1.52900,-3.29893,-3.75908
1.55100,-3.30565,-3.75736
1.56300,-3.30073,-3.76820
1.58500,-3.28421,-3.81588
1.60700,-3.27955,-3.82639
1.61900,-3.27969,-3.83885
1.64100,-3.33005,-3.80810
1.65300,-3.32720,-3.81836
1.67500,-3.33425,-3.80804
1.68700,-3.31878,-3.81036
1.70900,-3.32237,-3.80702
1.73100,-3.31878,-3.79822
1.74300,-3.32631,-3.79552
1.76500,-3.33308,-3.79969
1.77700,-3.32717,-3.79803
1.79900,-3.32585,-3.81886
1.81100,-3.33321,-3.80463
1.83300,-3.33025,-3.81686
1.84500,-3.34079,-3.81555
1.86700,-3.34430,-3.81286
1.88900,-3.33173,-3.79838
1.90100,-3.33272,-3.80112
1.92300,-3.33122,-3.81736
1.93500,-3.32482,-3.81824
1.95700,-3.30818,-3.83013
1.96900,-3.30985,-3.81697
1.99100,-3.26673,-3.81786
2.01300,-3.28454,-3.80432
2.02500,-3.29071,-3.80124
2.04700,-3.28754,-3.78724
2.05900,-3.29110,-3.79794
2.08100,-3.28437,-3.79538
2.09300,-3.28200,-3.79601
2.11500,-3.29975,-3.78138
2.13700,-3.31578,-3.78821
2.14900,-3.31988,-3.78246
2.17100,-3.33067,-3.78944
2.18300,-3.33329,-3.79417
2.20500,-3.32791,-3.78916
2.21700,-3.32392,-3.78963
2.23900,-3.32116,-3.81143
2.25100,-3.33051,-3.81081
2.27300,-3.33204,-3.80295
2.29500,-3.33661,-3.81172
2.30700,-3.34168,-3.80385
2.32900,-3.32761,-3.80244
2.34100,-3.33070,-3.79914
2.36300,-3.34723,-3.79727
2.37500,-3.35492,-3.79155
2.39700,-3.34435,-3.78372
2.41900,-3.36217,-3.78772
2.43100,-3.36936,-3.78636
2.45300,-3.36713,-3.79246
2.46500,-3.37097,-3.79246
2.48700,-3.37125,-3.78937
2.49900,-3.37991,-3.79047
2.52100,-3.38038,-3.78990
2.53300,-3.37652,-3.79128
2.55500,-3.38867,-3.79581
2.57700,-3.38285,-3.78457
2.58900,-3.38311,-3.78802
2.61100,-3.39011,-3.79347
2.62300,-3.39735,-3.79525
2.64500,-3.41000,-3.79756
2.65700,-3.41470,-3.79880
2.68400,-3.42722,-3.79579
2.69600,-3.42700,-3.80272
2.71800,-3.42056,-3.80197
2.73000,-3.42482,-3.80142
2.75200,-3.43891,-3.79931
2.76400,-3.43985,-3.79727
2.78600,-3.44362,-3.79448
2.79800,-3.44652,-3.79560
2.82000,-3.45951,-3.79213
2.84200,-3.46014,-3.78837
2.85400,-3.46443,-3.79555
2.87600,-3.47557,-3.78408
2.88800,-3.47650,-3.78250
2.91000,-3.47034,-3.78489
2.92200,-3.47611,-3.78548
2.94400,-3.48645,-3.78413
2.96600,-3.49408,-3.79111
2.97800,-3.49836,-3.79043
3.00000,-3.50752,-3.78750
3.01200,-3.51573,-3.79284
3.03400,-3.53094,-3.79575
3.04600,-3.53728,-3.79761
3.06800,-3.54577,-3.80358
3.08000,-3.55028,-3.80450
3.10200,-3.55457,-3.80318
3.12400,-3.56883,-3.80395
3.13600,-3.57371,-3.80199
3.15800,-3.57980,-3.80953
3.17000,-3.58233,-3.80548
3.19200,-3.58706,-3.81496
3.20400,-3.59170,-3.81717
3.22600,-3.60045,-3.81999
3.24800,-3.61246,-3.82495
3.26000,-3.61730,-3.82347
3.28200,-3.62728,-3.82749
3.29400,-3.63508,-3.82270
3.31600,-3.64546,-3.82043
3.32800,-3.65166,-3.81813
3.35000,-3.66751,-3.81205
3.37200,-3.67893,-3.81467
3.38400,-3.68320,-3.81459
3.40600,-3.69880,-3.81113
3.41800,-3.70134,-3.81670
3.44000,-3.70949,-3.81077
3.45200,-3.71516,-3.81302
3.47400,-3.72568,-3.82036
3.48600,-3.73152,-3.81845
3.50800,-3.74170,-3.81903
3.53000,-3.75133,-3.82249
3.54200,-3.75350,-3.82030
3.56400,-3.75680,-3.82667
3.57600,-3.76399,-3.83396
3.59800,-3.77381,-3.82671
3.61000,-3.77577,-3.82764
3.63200,-3.78068,-3.83247
3.65400,-3.78941,-3.83630
3.66600,-3.79185,-3.83353
3.68800,-3.80296,-3.83610
3.70000,-3.80512,-3.83682
3.72200,-3.81539,-3.84121
3.73400,-3.81983,-3.83951
3.75600,-3.82985,-3.84425
3.77800,-3.83996,-3.84161
3.79000,-3.84832,-3.84282
3.81200,-3.85066,-3.83933
3.82400,-3.85240,-3.83502
3.84600,-3.85557,-3.84005
3.85800,-3.86044,-3.83502
3.88000,-3.86545,-3.83954
3.89200,-3.86803,-3.84167
3.91400,-3.87374,-3.84780
3.93600,-3.87952,-3.85040
3.94800,-3.88222,-3.85189
3.97000,-3.88394,-3.84845
3.98200,-3.88974,-3.85198
4.00400,-3.89431,-3.86093
4.01600,-3.90013,-3.85585
4.03800,-3.89444,-3.86803
4.06000,-3.89860,-3.86196
4.07200,-3.90139,-3.85928
4.09400,-3.89766,-3.86253
4.10600,-3.90210,-3.85947
4.12800,-3.90381,-3.86101
4.14000,-3.90524,-3.85925
4.16200,-3.91037,-3.86094
4.17400,-3.91425,-3.86326
4.19600,-3.92171,-3.85923
4.21800,-3.92554,-3.86558
4.23000,-3.92781,-3.86891
4.25200,-3.93283,-3.87011
4.26400,-3.93531,-3.87006
4.28600,-3.93667,-3.86418
4.29800,-3.93984,-3.86731
4.32000,-3.94154,-3.87056
4.34200,-3.94833,-3.86770
4.35400,-3.95039,-3.87001
4.37600,-3.95579,-3.87263
4.38800,-3.95784,-3.86930
4.41000,-3.96723,-3.86708
4.42200,-3.97345,-3.86879
4.44400,-3.98060,-3.86094
4.46600,-3.98149,-3.85976
4.47800,-3.98319,-3.86261
4.50000,-3.98654,-3.85160
4.51200,-3.99084,-3.85412
4.53400,-3.99072,-3.86130
4.54600,-3.99101,-3.86067
4.56800,-4.00077,-3.85995
4.58000,-4.00636,-3.85681
4.60200,-4.00710,-3.86036
4.62400,-4.01081,-3.87138
4.63600,-4.01606,-3.86830
4.65800,-4.01905,-3.87236
4.67000,-4.02176,-3.87520
4.68700,-4.02248,-3.86789
4.70900,-4.02938,-3.86903
4.72100,-4.03015,-3.87231
4.74300,-4.03882,-3.85998
4.76500,-4.04406,-3.86375
4.77700,-4.04107,-3.86319
4.79900,-4.04996,-3.86514
4.81100,-4.05368,-3.86918
4.83300,-4.05383,-3.86353
4.84500,-4.05544,-3.86142
4.86700,-4.05657,-3.86571
4.88900,-4.06507,-3.86702
4.90100,-4.06637,-3.86512
4.92300,-4.07090,-3.87213
4.93500,-4.07168,-3.86994
4.95700,-4.07395,-3.86714
4.96900,-4.07229,-3.86761
4.99100,-4.07120,-3.87164
5.01300,-4.07719,-3.87398
5.02500,-4.08043,-3.87144
5.04700,-4.07953,-3.87180
5.05900,-4.08011,-3.87029
5.08100,-4.08682,-3.86932
5.09300,-4.08756,-3.86651
5.11500,-4.08734,-3.87313
5.12700,-4.08988,-3.87148
5.14900,-4.09711,-3.87298
5.17100,-4.10761,-3.87860
5.18300,-4.10919,-3.88011
5.20500,-4.11270,-3.87962
5.21700,-4.11724,-3.87920
5.23900,-4.11344,-3.87830
5.25100,-4.11518,-3.87984
5.27300,-4.11753,-3.88354
5.29500,-4.11644,-3.88300
5.30700,-4.11647,-3.88333
5.32900,-4.11758,-3.88152
5.34100,-4.12071,-3.88701
5.36300,-4.12185,-3.88889
5.37500,-4.12297,-3.88848
5.39700,-4.12483,-3.89141
5.41900,-4.12487,-3.88553
5.43100,-4.12263,-3.88963
5.45300,-4.13459,-3.88566
5.46500,-4.13623,-3.88104
5.48700,-4.14257,-3.88765
5.49900,-4.14409,-3.88810
5.52100,-4.15199,-3.88821
5.53300,-4.15457,-3.88929
5.55500,-4.15993,-3.88660
5.57700,-4.16293,-3.88473
5.58900,-4.16454,-3.88356
5.61100,-4.16499,-3.88074
5.62300,-4.16622,-3.87872
5.64500,-4.17220,-3.87997
5.65700,-4.17320,-3.88059
5.67900,-4.17824,-3.89553
5.70100,-4.18213,-3.89469
5.71300,-4.18179,-3.89654
5.73500,-4.18390,-3.89572
5.74700,-4.18477,-3.89481
5.76900,-4.18323,-3.89691
5.78100,-4.18438,-3.90047
5.80300,-4.18801,-3.90544
5.81528,-4.18889,-3.90694
5.83700,-4.19743,-3.90606
5.85900,-4.19383,-3.90691
5.87100,-4.19300,-3.90521
5.89300,-4.19311,-3.91014
5.90500,-4.19472,-3.91023
5.92700,-4.19641,-3.90932
5.93900,-4.19711,-3.91110
5.96100,-4.19586,-3.91244
5.98300,-4.19527,-3.91181
5.99500,-4.19870,-3.91151
6.01700,-4.19567,-3.91237
6.02900,-4.19556,-3.91530
6.05100,-4.20121,-3.91433
6.06300,-4.20492,-3.91048
6.08500,-4.20715,-3.91140
6.10700,-4.21291,-3.91288
6.11900,-4.21037,-3.91063
6.14100,-4.21561,-3.90552
6.15300,-4.21776,-3.90822
6.17500,-4.22100,-3.90269
6.18700,-4.22162,-3.90989
6.20900,-4.22762,-3.90450
6.22100,-4.22728,-3.90580
6.24300,-4.23068,-3.91243
6.26500,-4.24014,-3.91127
6.27700,-4.24107,-3.91455
6.29900,-4.24491,-3.91156
6.31100,-4.24326,-3.91530
6.33300,-4.24734,-3.92477
6.34500,-4.24783,-3.91782
6.36700,-4.25153,-3.93345
6.38900,-4.25716,-3.93275
6.40100,-4.26037,-3.93166
6.42300,-4.26288,-3.93530
6.43500,-4.26474,-3.93134
6.45700,-4.26339,-3.92890
6.46900,-4.26308,-3.93055
6.49100,-4.26811,-3.93042
6.51300,-4.26560,-3.92888
6.52500,-4.26542,-3.92959
6.54700,-4.27179,-3.92409
6.55900,-4.27240,-3.92690
6.58100,-4.28041,-3.92016
6.59300,-4.28385,-3.92225
6.61500,-4.27977,-3.92919
6.62700,-4.28139,-3.92876
6.64900,-4.28845,-3.92763
6.67100,-4.29258,-3.93273
6.68800,-4.29459,-3.93430
6.70000,-4.29601,-3.93741
6.72200,-4.29882,-3.94534
6.73400,-4.30068,-3.94448
6.75600,-4.29844,-3.94731
6.76800,-4.29968,-3.95009
6.79000,-4.29821,-3.94676
6.81200,-4.29515,-3.94990
6.82400,-4.29420,-3.94646
6.84600,-4.29444,-3.94565
6.85800,-4.29333,-3.94779
6.88000,-4.29713,-3.94011
6.89200,-4.29432,-3.94407
6.91400,-4.28523,-3.93770
6.93600,-4.28038,-3.93963
6.94800,-4.28183,-3.93901
6.97000,-4.28294,-3.93773
6.98200,-4.28470,-3.93718
7.00400,-4.28806,-3.93159
7.01600,-4.28828,-3.92981
7.03800,-4.28576,-3.92702
7.06000,-4.29504,-3.93137
7.07200,-4.29624,-3.92668
7.09400,-4.29036,-3.92306
7.10600,-4.28966,-3.92479
7.12800,-4.29199,-3.91699
7.14000,-4.29401,-3.91700
7.16200,-4.29056,-3.93104
7.17400,-4.29038,-3.93044
7.19600,-4.29626,-3.92391
7.21800,-4.29301,-3.92824
7.23000,-4.29081,-3.92479
7.25200,-4.29126,-3.92569
7.26400,-4.29413,-3.92631
7.28600,-4.29424,-3.91600
7.29800,-4.29322,-3.91659
7.32000,-4.29435,-3.91425
7.34200,-4.29819,-3.90963
7.35400,-4.30251,-3.91072
7.37600,-4.29600,-3.90714
7.38800,-4.29260,-3.90880
7.41000,-4.29371,-3.91073
7.42200,-4.29422,-3.90802
7.44400,-4.29894,-3.91114
7.46600,-4.30305,-3.90776
7.47800,-4.30500,-3.90786
7.50000,-4.30702,-3.91127
7.51200,-4.30849,-3.91118
7.53400,-4.30947,-3.90867
7.54600,-4.30428,-3.90915
7.56800,-4.30373,-3.90621
7.58000,-4.30346,-3.90842
7.60200,-4.31045,-3.90638
7.62400,-4.30908,-3.90694
7.63600,-4.30870,-3.90508
7.65800,-4.30998,-3.90680
7.67000,-4.31137,-3.90210
7.69200,-4.31255,-3.91024
7.70400,-4.31499,-3.90713
7.72600,-4.32289,-3.90679
7.74800,-4.32781,-3.90394
7.76000,-4.33129,-3.90326
7.78200,-4.32861,-3.90790
7.79400,-4.32858,-3.90586
7.81600,-4.32747,-3.90083
7.82800,-4.32772,-3.90485
7.85000,-4.33430,-3.89446
7.86200,-4.33146,-3.89562
7.88400,-4.33480,-3.90188
7.90600,-4.33888,-3.89951
7.91800,-4.34399,-3.89820
7.94000,-4.34530,-3.90245
7.95200,-4.34850,-3.89838
7.97400,-4.34844,-3.89461
7.98600,-4.34965,-3.89421
8.00800,-4.35044,-3.88546
8.03000,-4.35445,-3.89161
8.04200,-4.35100,-3.89026
8.06400,-4.34050,-3.89805
8.07600,-4.34055,-3.89723
8.09800,-4.34361,-3.89704
8.11000,-4.34406,-3.89294
8.13200,-4.34511,-3.89444
8.15400,-4.34803,-3.90161
8.16600,-4.35054,-3.90154
8.18800,-4.35454,-3.90173
8.20000,-4.35591,-3.90217
8.22200,-4.35566,-3.90546
8.23400,-4.35594,-3.90462
8.25600,-4.35554,-3.90161
8.26800,-4.35480,-3.90073
8.29000,-4.34971,-3.90724
8.31200,-4.35235,-3.90837
8.32400,-4.35147,-3.90609
8.34600,-4.35308,-3.90617
8.35800,-4.35295,-3.90542
8.38000,-4.35240,-3.91435
8.39200,-4.34900,-3.91889
8.41400,-4.35040,-3.92314
8.43600,-4.35052,-3.92878
8.44800,-4.34871,-3.92622
8.47000,-4.34582,-3.92881
8.48200,-4.34548,-3.93041
8.50400,-4.34756,-3.92668
8.51600,-4.34454,-3.92765
8.53800,-4.34444,-3.91712
8.56000,-4.34095,-3.91497
8.57200,-4.33618,-3.91913
8.59400,-4.34036,-3.90984
8.60600,-4.34083,-3.90966
8.62800,-4.34831,-3.91517
8.64000,-4.35079,-3.91413
8.66200,-4.34617,-3.91556
8.67400,-4.34403,-3.91566
8.70100,-4.33741,-3.91762
8.71300,-4.33583,-3.91825
8.73500,-4.33690,-3.91587
8.74700,-4.33721,-3.91498
8.76900,-4.34118,-3.92467
8.78100,-4.34060,-3.92515
8.80300,-4.34161,-3.92174
8.81500,-4.34122,-3.92399
8.83700,-4.34400,-3.91913
8.85900,-4.34660,-3.91133
8.87100,-4.34776,-3.91308
8.89300,-4.35089,-3.90247
8.90500,-4.34992,-3.90430
8.92700,-4.35972,-3.90333
8.93900,-4.36051,-3.90226
8.96100,-4.36783,-3.89881
8.98300,-4.36799,-3.89743
8.99500,-4.36885,-3.90262
9.01700,-4.36945,-3.89458
9.02900,-4.36982,-3.89929
9.05100,-4.37053,-3.90298
9.06300,-4.37011,-3.90317
9.08500,-4.36593,-3.91212
9.10700,-4.36551,-3.90979
9.11900,-4.37020,-3.90775
9.14100,-4.37001,-3.90599
9.15300,-4.37358,-3.90626
9.17500,-4.36307,-3.89761
9.18700,-4.35935,-3.89935
9.20900,-4.35665,-3.89945
9.22100,-4.35508,-3.89849
9.24300,-4.35669,-3.89877
9.26500,-4.35594,-3.89777
9.27700,-4.35407,-3.89887
9.29900,-4.35192,-3.89520
9.31100,-4.35388,-3.89480
9.33300,-4.35702,-3.89898
9.34500,-4.35439,-3.89749
9.36700,-4.36035,-3.89542
9.38900,-4.36240,-3.89868
9.40100,-4.36329,-3.90181
9.42300,-4.36406,-3.89762
9.43500,-4.36177,-3.89765
9.45700,-4.36268,-3.90222
9.46900,-4.36645,-3.90307
9.49100,-4.36439,-3.90388
9.50300,-4.36519,-3.90457
9.52500,-4.36295,-3.90478
9.54700,-4.36394,-3.91272
9.55900,-4.36117,-3.91378
9.58100,-4.35758,-3.90516
9.59300,-4.35489,-3.91355
9.61500,-4.35580,-3.90928
9.62700,-4.35475,-3.90953
9.64900,-4.36260,-3.90355
9.67100,-4.36686,-3.90405
9.68300,-4.36498,-3.90284
9.70500,-4.36511,-3.89961
9.71700,-4.36381,-3.89745
9.73900,-4.36396,-3.89451
9.75100,-4.36319,-3.89632
9.77300,-4.36618,-3.89302
9.79500,-4.37003,-3.89409
9.80700,-4.36981,-3.89361
9.82900,-4.36828,-3.89376
9.84100,-4.37091,-3.90047
9.86300,-4.37982,-3.89948
9.87500,-4.38165,-3.89994
9.89700,-4.38501,-3.89374
9.90900,-4.38610,-3.89710
9.93100,-4.38314,-3.89468
9.95300,-4.38363,-3.89478
9.96500,-4.38371,-3.89582
9.98700,-4.38750,-3.89981
9.99900,-4.38993,-3.90323
10.02100,-4.39125,-3.90526
10.03300,-4.39077,-3.90990
10.05500,-4.39480,-3.90864
10.07700,-4.39792,-3.90691
10.08900,-4.39853,-3.90874
10.11100,-4.40081,-3.90281
10.12300,-4.39897,-3.90017
10.14500,-4.40262,-3.90309
10.15700,-4.40222,-3.90438
10.17900,-4.40197,-3.90791
10.20100,-4.40207,-3.90499
10.21300,-4.40528,-3.91009
10.23500,-4.40365,-3.91273
10.24700,-4.40073,-3.90969
10.26900,-4.40532,-3.91053
10.28100,-4.40712,-3.90999
10.30300,-4.41438,-3.90312
10.31500,-4.41363,-3.90213
10.33700,-4.42185,-3.89536
10.35900,-4.41786,-3.89062
10.37100,-4.41888,-3.89130
10.39300,-4.41960,-3.89078
10.40500,-4.42218,-3.89417
10.42700,-4.42367,-3.89440
10.43900,-4.42089,-3.89590
10.46100,-4.42173,-3.89416
10.48300,-4.41744,-3.88893
10.49500,-4.42115,-3.88441
10.51700,-4.42089,-3.88317
10.52900,-4.42228,-3.88170
10.55100,-4.42714,-3.88516
10.56300,-4.42565,-3.88392
10.58500,-4.42522,-3.88495
10.59728,-4.42713,-3.88288
10.62000,-4.42301,-3.87541
10.64200,-4.42238,-3.87971
10.65400,-4.42295,-3.87746
10.67600,-4.42363,-3.87914
10.69300,-4.42132,-3.87642
10.70500,-4.42329,-3.87710
10.72700,-4.42571,-3.88170
10.73900,-4.42525,-3.88184
10.76100,-4.42815,-3.88395
10.78300,-4.42995,-3.88324
10.79500,-4.43112,-3.88148
10.81700,-4.43190,-3.88862
10.82900,-4.43030,-3.88701
10.85100,-4.42963,-3.88813
10.86300,-4.43279,-3.88724
10.88500,-4.43230,-3.88715
10.89700,-4.43121,-3.89427
10.91900,-4.43370,-3.89102
10.94100,-4.43388,-3.88383
10.95300,-4.43538,-3.88710
10.97500,-4.43557,-3.88536
10.98700,-4.43913,-3.88475
11.00900,-4.43260,-3.88024
11.02100,-4.42808,-3.88272
11.04300,-4.42750,-3.87921
11.06500,-4.42698,-3.88430
11.07700,-4.42911,-3.88441
11.09900,-4.42935,-3.89163
11.11100,-4.42846,-3.89133
11.13300,-4.43403,-3.89732
11.14500,-4.43478,-3.89983
11.16700,-4.43306,-3.90249
11.18900,-4.44161,-3.89628
11.20100,-4.43868,-3.89740
11.22300,-4.44021,-3.89761
11.23500,-4.43758,-3.89733
11.25700,-4.43763,-3.88628
11.26900,-4.43425,-3.89083
11.29100,-4.43338,-3.89797
11.30300,-4.43419,-3.89967
11.32500,-4.43189,-3.90121
11.34700,-4.42673,-3.89430
11.35900,-4.42664,-3.89541
11.38100,-4.42748,-3.89749
11.39300,-4.42624,-3.89825
11.41500,-4.42863,-3.89209
11.42700,-4.42823,-3.89181
11.44900,-4.42560,-3.89306
11.47100,-4.42681,-3.89450
11.48300,-4.42507,-3.89651
11.50500,-4.42584,-3.89428
11.51700,-4.42747,-3.89401
11.53900,-4.42419,-3.89464
11.55100,-4.42481,-3.89634
11.57300,-4.41898,-3.89141
11.59500,-4.41518,-3.89206
11.60700,-4.41671,-3.89105
11.62900,-4.41334,-3.89817
11.64100,-4.41212,-3.89908
11.66300,-4.41002,-3.89464
11.67500,-4.40626,-3.89587
11.69700,-4.41152,-3.90032
11.70900,-4.40806,-3.89919
11.73100,-4.41184,-3.90549
11.75300,-4.40705,-3.91312
11.76500,-4.40676,-3.90954
11.78700,-4.40938,-3.90723
11.79900,-4.40984,-3.91153
11.82100,-4.41492,-3.91498
11.83300,-4.41212,-3.91163
11.85500,-4.42091,-3.92059
11.87700,-4.42366,-3.91199
11.88900,-4.41911,-3.91630
11.91100,-4.42046,-3.92202
11.92300,-4.42272,-3.92526
11.94500,-4.42468,-3.92736
11.95700,-4.42371,-3.92391
11.97900,-4.42730,-3.92751
11.99128,-4.42628,-3.92824
12.01300,-4.43358,-3.91976
12.03500,-4.43515,-3.91951
12.04700,-4.43147,-3.91621
12.06900,-4.43313,-3.90732
12.08100,-4.43250,-3.90977
12.10300,-4.42625,-3.90493
12.11500,-4.42636,-3.90679
12.13700,-4.42083,-3.91139
12.15900,-4.42515,-3.90826
12.17100,-4.42416,-3.91294
12.19300,-4.42349,-3.91521
12.20500,-4.42269,-3.91477
12.22700,-4.41804,-3.91172
12.23900,-4.41792,-3.91000
12.26100,-4.41549,-3.90760
12.28300,-4.41520,-3.90799
12.29500,-4.41527,-3.90738
12.31700,-4.41902,-3.90890
12.32900,-4.41725,-3.91029
12.35100,-4.42055,-3.91433
12.36300,-4.42246,-3.91190
12.38500,-4.42182,-3.92003
12.39700,-4.42294,-3.91448
12.41900,-4.42065,-3.91321
12.44100,-4.41843,-3.91298
12.45300,-4.41652,-3.91420
12.47500,-4.41280,-3.90976
12.48700,-4.41269,-3.91213
12.50900,-4.40873,-3.91967
12.52100,-4.40940,-3.92155
12.54300,-4.41548,-3.91969
12.56500,-4.41158,-3.92102
12.57700,-4.41075,-3.92211
12.59900,-4.40939,-3.92170
12.61100,-4.40876,-3.92069
12.63300,-4.40288,-3.92260
12.64500,-4.39941,-3.92438
12.66700,-4.39732,-3.93460
12.69400,-4.40134,-3.92604
12.70600,-4.40157,-3.92679
12.71800,-4.40319,-3.92728
12.74000,-4.40555,-3.93133
12.75200,-4.40608,-3.93215
12.77400,-4.40914,-3.93093
12.78600,-4.40856,-3.93448
12.80800,-4.41407,-3.93633
12.83000,-4.41228,-3.93322
12.84200,-4.41233,-3.93345
12.86400,-4.40845,-3.94221
12.87600,-4.41334,-3.94202
12.89800,-4.41346,-3.93354
12.91000,-4.41025,-3.93659
12.93200,-4.41129,-3.92656
12.94400,-4.41097,-3.93179
12.96600,-4.40776,-3.93736
12.98800,-4.40635,-3.92656
13.00000,-4.40156,-3.92934
13.02200,-4.39635,-3.92833
13.03400,-4.39493,-3.92430
13.05600,-4.39264,-3.92597
13.06800,-4.39494,-3.92169
13.09000,-4.39653,-3.91908
13.11200,-4.39375,-3.91175
13.12400,-4.39190,-3.91250
13.14600,-4.39605,-3.91004
13.15800,-4.39207,-3.90703
13.18000,-4.39778,-3.90378
13.19200,-4.39513,-3.90497
13.21400,-4.38777,-3.90903
13.23600,-4.39141,-3.92011
13.24800,-4.39338,-3.91687
13.27000,-4.39817,-3.91933
13.28200,-4.39835,-3.92136
13.30400,-4.39958,-3.91626
13.31600,-4.39751,-3.91636
13.33800,-4.39372,-3.92464
13.35000,-4.39257,-3.92450
13.37200,-4.38785,-3.92616
13.39400,-4.39635,-3.93155
